! Source Pull Measurement Data
! Source Frequencies = F0: 2.6GHzGHz
!--------------------------------------------------------
Point  Gamma  Phase[deg]  Pin[dBm]  Pout[dBm]  Gain[dB]  V1[V]  I1[uA]  V2[V]  I2[mA]  PAEffWaves[%]
000     0.55287645     34.23476333     14.56606995662916     30.29872537715486     15.732655420525699     1.799349     -231.7138     27.99429     80.44755     47.565301956000134
001     0.51412466     40.19828349     14.572731858117784     29.93791548006438     15.365183621946596     1.799482     -227.756     27.99413     81.48421     43.216651461219456
002     0.48521946     34.33290164     14.573356654625755     29.781281662852205     15.20792500822645     1.799316     -213.0803     27.99402     81.69352     41.5791195187415
003     0.51272524     28.37133989     14.578138493750458     29.97507978866885     15.396941294918392     1.799372     -206.93830000000003     27.99434     81.28829     43.69278806452762
004     0.57096591     27.58211745     14.587313442843202     30.370043723802066     15.782730280958864     1.799428     -187.86049999999997     27.99435     80.15139     48.53141186907476
005     0.61421153     31.42539759     14.600980785741884     30.741265019659355     16.14028423391747     1.799346     -225.9474     27.99429     78.54379     53.94425394205804
006     0.61486037     36.90144951     14.614826310895578     30.772691020788443     16.157864709892863     1.799419     -213.5521     27.99434     78.69927     54.22857161031283
007     0.57253294     40.83185578     14.617230147641866     30.387170716512387     15.76994056887052     1.79952     -220.0077     27.9942     80.56371     48.47407753086162
008     0.43586126     42.17484373     14.606806519399651     29.268761502660958     14.661954983261307     1.799476     -226.3655     27.99421     82.77582     36.46736991400889
009     0.43402776     26.65998476     14.603302661168948     29.331638353264683     14.728335692095735     1.799342     -229.2518     27.99436     82.56579     37.093101803794035
010     0.53749298     20.06754068     14.603199590663715     29.748185094850115     15.1449855041864     1.799437     -187.8598     27.99438     81.61868999999999     41.30075929588544
011     0.64485526     24.69887204     14.619335904867295     30.670538915882112     16.051203011014817     1.799318     -200.41039999999998     27.99423     78.14045     53.3469331249659
012     0.68819386     34.09637605     14.641982657281895     31.060797191386186     16.418814534104293     1.799558     -174.13709999999998     27.99418     74.10696999999999     61.53935098104958
013     0.64707982     43.55153349     14.650301379577781     30.73000460624941     16.079703226671626     1.799519     -201.4959     27.9942     78.66763     53.72004071040822
014     0.54081652     48.39393361     14.636840889600663     29.735048936820743     15.09820804722008     1.799363     -227.6077     27.99441     82.27839     40.84583605189009
015     0.45727158     54.74886728     14.629599076422487     28.867490832598914     14.237891756176428     1.799485     -230.1828     27.99428     83.49571999999999     32.962152708511574
016     0.34991223     34.64302852     14.620558705703296     28.67888513417872     14.058326428475425     1.799421     -211.4269     27.99434     83.50537     31.557593367970615
017     0.45253322     13.91636151     14.615129341521564     29.07647229764805     14.461342956126485     1.799433     -231.12290000000002     27.99428     82.84688     34.85794417475127
018     0.62779853     15.80831565     14.619593011958012     29.9995633262021     15.379970314244089     1.799567     -189.90709999999999     27.99429     80.52043     44.358902226785936
019     0.7401974     27.22651643     14.644158364850455     30.740255347522748     16.096096982672293     1.799414     -179.48829999999998     27.99413     71.07267     59.60132692849191
020     0.74181171     40.8781992     14.680142767112347     30.89174787316145     16.211605106049102     1.799503     -172.06550000000001     27.99419     69.06356     63.512311707359906
021     0.63206542     52.42648357     14.66350960508851     29.855851727530496     15.192342122441985     1.799426     -207.0104     27.99413     81.89175999999999     42.1966518563113
022     0.33302214     55.43264133     14.63409115814767     28.13426942001335     13.50017826186568     1.799407     -192.0103     27.99415     84.11218     27.637628040159377
023     0.3281979     13.82982622     14.626724822493987     28.26748332557155     13.640758503077564     1.799541     -181.3963     27.99423     83.80859     28.601662127055395
024     0.55565374     5.97259703     14.620266476605078     28.589870060717004     13.969603584111926     1.79944     -206.16199999999998     27.99426     83.14781     31.050399999374275
025     0.75008685     17.68502622     14.630357493944848     29.988161004371328     15.35780351042648     1.799232     -277.55629999999996     27.99419     77.35356999999999     46.05405047546348
026     0.82351396     34.00346806     14.685365116194012     29.87769743108432     15.19233231489031     1.799302     -238.4203     27.99422     55.574600000000004     62.49208665025607
027     0.75390866     50.36996874     14.705137315694184     30.29875423650349     15.593616920809307     1.799637     -160.9967     27.99417     76.41123     50.0784222150572
028     0.56206645     62.31688752     14.667506126976972     28.620318514271418     13.952812387294445     1.799492     -211.8576     27.99416     83.96687     30.963956345123528
029     0.43645901     71.96281355     14.658086748756038     27.66887603877262     13.010789290016582     1.799464     -217.87290000000002     27.99423     84.67208     24.664871030869623
030     0.21462818     35.34416023     14.646508765044821     27.600535987267026     12.954027222222205     1.799306     -208.2864     27.99414     84.5295     24.320817476100668
031     0.42814891     -3.47691624     14.638329421546368     27.984107881875822     13.345778460329454     1.799457     -198.5838     27.9942     84.02029     26.727513093312872
032     0.70631859     6.31419501     14.632267187329962     28.905568124919494     14.273300937589532     1.799535     -198.0739     27.99419     82.20394     33.77507118450678
033     0.86899634     24.26005408     14.65458249502536     28.670787678382517     14.016205183357156     1.799438     -212.046     27.99421     61.07448     43.067610203431336
034     0.87128755     43.6834263     14.735511833918803     28.788597988862165     14.053086154943362     1.799512     -195.7373     27.99424     49.79844     54.27194413176623
035     0.71263277     61.71890428     14.685410531487559     28.454443514224433     13.769032982736874     1.799417     -211.5645     27.99416     84.02266     29.78382590068759
